#   1 NUMBER          Running object number
#   2 FLUX_APER       Flux vector within fixed circular aperture(s)   [count]
#   3 FLUXERR_APER    RMS error vector for aperture flux(es)          [count]
#   4 ALPHA_J2000     Right ascension of barycenter (J2000)           [deg]
#   5 DELTA_J2000     Declination of barycenter (J2000)               [deg]
#   6 MAG_APER        Fixed aperture magnitude vector                 [mag]
#   7 FLUX_RADIUS     Fraction-of-light radii                         [pixel]
         1      149.888      3.56664   0.0000000  +0.0000000  24.5606     15.873
         2      69.4758      3.55571   0.0000000  +0.0000000  25.3954     15.543
         3      5326.25      3.55936   0.0000000  +0.0000000  20.6839      2.802
         4      160.207        3.563   0.0000000  +0.0000000  24.4883      6.090
         5      150.769      3.57028   0.0000000  +0.0000000  24.5542     -7.103
         6      233.697      3.57392   0.0000000  +0.0000000  24.0784      6.819
         7      147.599      3.57392   0.0000000  +0.0000000  24.5773    -46.750
         8      70.0941        3.563   0.0000000  +0.0000000  25.3858     10.585
         9      74.0422      3.57392   0.0000000  +0.0000000  25.3263      3.471
        10       39.797      3.56664   0.0000000  +0.0000000  26.0004      2.340
        11      63.1282        3.563   0.0000000  +0.0000000  25.4994      4.957
        12      83.0146      3.57755   0.0000000  +0.0000000  25.2021      7.498
        13      33.8429      3.57392   0.0000000  +0.0000000  26.1763      2.292
        14      87.5805      3.56664   0.0000000  +0.0000000  25.1440      5.146
        15      122.401      3.56664   0.0000000  +0.0000000  24.7805      3.093
        16      114.932      3.55206   0.0000000  +0.0000000  24.8489      8.240
        17      21.9101      3.40274   0.0000000  +0.0000000  26.6484      2.534
        18      40.0447      3.55206   0.0000000  +0.0000000  25.9936      4.931
        19      67.7797       3.5484   0.0000000  +0.0000000  25.4223      2.248
        20      220.088      3.57028   0.0000000  +0.0000000  24.1435      2.663
        21      572.123      3.55571   0.0000000  +0.0000000  23.1063      2.725
        22       59.931      3.55936   0.0000000  +0.0000000  25.5559      4.078
        23      89.9388      3.57755   0.0000000  +0.0000000  25.1151      6.292
        24      430.342      3.55936   0.0000000  +0.0000000  23.4155      0.997
        25      38.6207      3.57755   0.0000000  +0.0000000  26.0329      5.347
        26      34.5043      3.57755   0.0000000  +0.0000000  26.1553      9.721
        27      62.1836      3.57392   0.0000000  +0.0000000  25.5158      2.559
        28      157.111      3.57755   0.0000000  +0.0000000  24.5095      4.113
        29      94.7767      3.55936   0.0000000  +0.0000000  25.0582      1.931
        30      131.141        3.563   0.0000000  +0.0000000  24.7057      2.579
        31      493.474      3.57755   0.0000000  +0.0000000  23.2668      1.136
        32      162.443      3.55936   0.0000000  +0.0000000  24.4732      0.513
        33        178.2      3.57755   0.0000000  +0.0000000  24.3727      0.465
        34      43.7391      3.54474   0.0000000  +0.0000000  25.8978      4.234
        35      62.8717      3.57392   0.0000000  +0.0000000  25.5039      3.151
        36      50.2432      3.57392   0.0000000  +0.0000000  25.7473      7.298
        37      66.8856      3.57755   0.0000000  +0.0000000  25.4367      3.518
        38      106.016      3.58117   0.0000000  +0.0000000  24.9366      3.008
        39      107.466      3.55936   0.0000000  +0.0000000  24.9218      4.539
        40      96.9619      3.55936   0.0000000  +0.0000000  25.0335    -12.529
        41      239.989      3.57392   0.0000000  +0.0000000  24.0495      4.262
        42      198.706      3.56664   0.0000000  +0.0000000  24.2545      4.168
        43      116.561      3.57755   0.0000000  +0.0000000  24.8336      5.392
        44        77.87      3.55936   0.0000000  +0.0000000  25.2716      4.529
        45      578.158      3.57392   0.0000000  +0.0000000  23.0949      2.063
        46      92.6096      3.56664   0.0000000  +0.0000000  25.0834      5.315
        47      61.2597      3.57755   0.0000000  +0.0000000  25.5321      5.660
        48      171.381        3.563   0.0000000  +0.0000000  24.4151      5.369
        49      44.6602      3.58117   0.0000000  +0.0000000  25.8752      3.299
        50       31.193      3.55936   0.0000000  +0.0000000  26.2649      2.719
        51      27.1083      3.55936   0.0000000  +0.0000000  26.4172      6.611
        52      50.7104        3.563   0.0000000  +0.0000000  25.7373      3.176
        53       299.36      3.55571   0.0000000  +0.0000000  23.8095      5.683
        54      203.667      3.57392   0.0000000  +0.0000000  24.2277      4.984
        55      34.0449      3.57755   0.0000000  +0.0000000  26.1699      1.953
        56      42.7359      3.57392   0.0000000  +0.0000000  25.9230      5.239
        57      89.6288        3.563   0.0000000  +0.0000000  25.1189      4.068
        58      37.4201      3.57392   0.0000000  +0.0000000  26.0672      8.016
        59      75.5493      3.55206   0.0000000  +0.0000000  25.3044      2.490
        60      60.6091        3.563   0.0000000  +0.0000000  25.5437      2.953
        61       47.099      3.57755   0.0000000  +0.0000000  25.8175      4.447
        62      81.9995       3.5484   0.0000000  +0.0000000  25.2155      3.608
        63      36.5577      3.57755   0.0000000  +0.0000000  26.0926      3.774
        64      53.8989      3.55936   0.0000000  +0.0000000  25.6711      5.141
        65      85.8269      3.57392   0.0000000  +0.0000000  25.1659      6.525
        66      111.647      3.57028   0.0000000  +0.0000000  24.8804      3.421
        67      51.3442      3.58117   0.0000000  +0.0000000  25.7238      4.261
        68      2114.42      3.58117   0.0000000  +0.0000000  21.6870      2.889
        69      44.3715      3.56664   0.0000000  +0.0000000  25.8822      5.866
        70      28.3384      3.56664   0.0000000  +0.0000000  26.3691      3.288
        71      43.2118      3.57028   0.0000000  +0.0000000  25.9110      5.027
        72      28.8296        3.563   0.0000000  +0.0000000  26.3504      3.421
        73      47.0216      3.55936   0.0000000  +0.0000000  25.8193      4.876
        74       31.561      3.57392   0.0000000  +0.0000000  26.2521      2.911
        75      33.1165      3.58117   0.0000000  +0.0000000  26.1999      1.814
        76      158.234      3.57028   0.0000000  +0.0000000  24.5018      3.034
        77      213.654      3.57392   0.0000000  +0.0000000  24.1757      7.178
        78      31.1771      3.57755   0.0000000  +0.0000000  26.2654      2.496
        79      154.094      3.57028   0.0000000  +0.0000000  24.5305      8.038
        80      60.2901      3.57392   0.0000000  +0.0000000  25.5494     13.000
        81      98.9461      3.57028   0.0000000  +0.0000000  25.0115      3.072
        82      62.7288      3.57755   0.0000000  +0.0000000  25.5063      6.355
        83      102.916      3.57028   0.0000000  +0.0000000  24.9688      7.043
        84      38.8491      3.56664   0.0000000  +0.0000000  26.0265      6.300
        85      70.1249        3.563   0.0000000  +0.0000000  25.3853     10.966
        86       120.59      3.57755   0.0000000  +0.0000000  24.7967    -36.006
        87      1787.32      3.57392   0.0000000  +0.0000000  21.8695      3.090
        88      21.4316      3.55206   0.0000000  +0.0000000  26.6724      5.284
        89      3457.65      3.57755   0.0000000  +0.0000000  21.1530      2.762
        90       38.211      3.57755   0.0000000  +0.0000000  26.0445      2.862
        91      1385.12      3.55936   0.0000000  +0.0000000  22.1463      1.149
        92      1390.69      3.57028   0.0000000  +0.0000000  22.1419      1.031
        93      61.0523      3.57755   0.0000000  +0.0000000  25.5357      2.960
        94       30.542      3.58117   0.0000000  +0.0000000  26.2878      7.596
        95      64.6574        3.563   0.0000000  +0.0000000  25.4735      4.377
        96      29.6416      3.55571   0.0000000  +0.0000000  26.3202      2.111
        97       283.11      3.55936   0.0000000  +0.0000000  23.8701      2.751
        98      277.036      3.57755   0.0000000  +0.0000000  23.8937      6.694
        99      137.956      3.58117   0.0000000  +0.0000000  24.6506      3.482
       100      156.314      3.55936   0.0000000  +0.0000000  24.5150      3.195
       101      55.2827      3.56664   0.0000000  +0.0000000  25.6435      3.858
       102      60.7108      3.57755   0.0000000  +0.0000000  25.5418      2.872
       103      96.0299      3.57392   0.0000000  +0.0000000  25.0440      4.909
       104        54.67      3.55571   0.0000000  +0.0000000  25.6556      9.471
       105      49.2758        3.563   0.0000000  +0.0000000  25.7684      2.609
       106      367.094      3.57755   0.0000000  +0.0000000  23.5881      0.775
       107      305.408      3.57028   0.0000000  +0.0000000  23.7878      0.621
       108       67.966      3.57755   0.0000000  +0.0000000  25.4193      3.594
       109      118.215      3.57392   0.0000000  +0.0000000  24.8183      4.467
       110      2954.06      3.57028   0.0000000  +0.0000000  21.3239      9.404
       111      74.3239      3.57755   0.0000000  +0.0000000  25.3222     82.545
       112      301.108      3.57755   0.0000000  +0.0000000  23.8032      4.594
       113      2583.32        3.563   0.0000000  +0.0000000  21.4696      2.812
       114      4343.08      3.57392   0.0000000  +0.0000000  20.9055      3.113
       115      137.744      3.57755   0.0000000  +0.0000000  24.6523     21.126
       116      79.1127      3.57755   0.0000000  +0.0000000  25.2544      2.501
       117      46.6824      3.57028   0.0000000  +0.0000000  25.8271      2.797
       118      57.8521      3.57392   0.0000000  +0.0000000  25.5942     13.999
       119      359.942      3.55206   0.0000000  +0.0000000  23.6094     24.045
       120      1075.73       3.5484   0.0000000  +0.0000000  22.4207      2.323
       121      88.4627      3.55936   0.0000000  +0.0000000  25.1331      3.994
       122      32.0328      3.57755   0.0000000  +0.0000000  26.2360      4.242
       123       42.017      3.55936   0.0000000  +0.0000000  25.9414      3.983
       124       43.642      3.57755   0.0000000  +0.0000000  25.9002      2.852
       125       138.18      3.57755   0.0000000  +0.0000000  24.6489     12.338
       126      59.9624      3.56664   0.0000000  +0.0000000  25.5553     16.324
       127      757.601      3.51163   0.0000000  +0.0000000  22.8014      2.725
       128         -293      3.56664   0.0000000  +0.0000000  99.0000      3.524
       129      35.6699      3.57028   0.0000000  +0.0000000  26.1192     13.800
       130      214.493      3.57755   0.0000000  +0.0000000  24.1715      7.429
       131      33.4769      3.55936   0.0000000  +0.0000000  26.1881      2.354
       132       30.504        3.563   0.0000000  +0.0000000  26.2891      3.767
       133      29.4179      3.58117   0.0000000  +0.0000000  26.3285      8.297
       134      41.3821      3.55936   0.0000000  +0.0000000  25.9580      2.292
       135      62.5396      3.57392   0.0000000  +0.0000000  25.5096      4.917
       136      259.406      3.55571   0.0000000  +0.0000000  23.9650      4.791
       137      236.387      3.57028   0.0000000  +0.0000000  24.0659      4.849
       138      147.606      3.56664   0.0000000  +0.0000000  24.5772     11.679
       139      45.2649        3.563   0.0000000  +0.0000000  25.8606      2.254
       140      32.3565      3.57028   0.0000000  +0.0000000  26.2251      7.675
       141      56.2593      3.55571   0.0000000  +0.0000000  25.6245      3.094
       142      50.4276      3.55936   0.0000000  +0.0000000  25.7433      9.433
       143      34.4613      3.57755   0.0000000  +0.0000000  26.1567      4.722
       144      31.3865      3.57392   0.0000000  +0.0000000  26.2581      4.855
       145       81.991      3.57755   0.0000000  +0.0000000  25.2156      6.050
       146      391.774      3.56664   0.0000000  +0.0000000  23.5174      5.595
       147      38.6399      3.57392   0.0000000  +0.0000000  26.0324      4.716
       148      43.9535      3.55936   0.0000000  +0.0000000  25.8925      2.255
       149      27.9509      3.55206   0.0000000  +0.0000000  26.3840      5.262
       150      23.4645      3.57392   0.0000000  +0.0000000  26.5740     18.483
       151      44.0136      3.56664   0.0000000  +0.0000000  25.8910     19.559
       152      71.5132      3.57755   0.0000000  +0.0000000  25.3640      5.274
       153      47.2929      3.57755   0.0000000  +0.0000000  25.8130      3.045
       154      28.0494      3.55571   0.0000000  +0.0000000  26.3802     16.840
       155      97.2838      3.57028   0.0000000  +0.0000000  25.0299      3.436
       156        33.62      3.57392   0.0000000  +0.0000000  26.1835     10.994
       157      47.0516      3.57392   0.0000000  +0.0000000  25.8186     12.623
       158      47.0019      3.55206   0.0000000  +0.0000000  25.8197     16.863
       159      47.3246      3.57028   0.0000000  +0.0000000  25.8123     18.789
       160      107.405      3.57755   0.0000000  +0.0000000  24.9224      5.092
       161       30.787      3.57392   0.0000000  +0.0000000  26.2791      5.604
       162      37.9135      3.55936   0.0000000  +0.0000000  26.0530     13.330
       163      36.1558      3.57028   0.0000000  +0.0000000  26.1046     13.997
       164      33.6925      3.55206   0.0000000  +0.0000000  26.1812     15.838
       165      23.4722      3.57755   0.0000000  +0.0000000  26.5736      8.220
       166      43.8027      3.57755   0.0000000  +0.0000000  25.8962      5.330
       167      91.7972      3.56664   0.0000000  +0.0000000  25.0929      4.927
       168      83.2338      3.55936   0.0000000  +0.0000000  25.1993      2.427
       169      96.2283      3.57755   0.0000000  +0.0000000  25.0417      4.466
       170      141.077        3.563   0.0000000  +0.0000000  24.6264      5.143
       171      33.8443      3.57028   0.0000000  +0.0000000  26.1763      6.470
       172      30.7107      3.57392   0.0000000  +0.0000000  26.2818     10.901
       173      41.1799      3.57392   0.0000000  +0.0000000  25.9633      7.830
       174      46.7003      3.57755   0.0000000  +0.0000000  25.8267      7.665
       175      144.372      3.57028   0.0000000  +0.0000000  24.6013      6.275
       176      359.786      3.58117   0.0000000  +0.0000000  23.6099      0.573
       177      31.3536      3.57028   0.0000000  +0.0000000  26.2593      2.111
       178      116.492      3.58117   0.0000000  +0.0000000  24.8343     12.107
       179      88.8062      3.55936   0.0000000  +0.0000000  25.1289      7.630
       180      36.3505      3.57392   0.0000000  +0.0000000  26.0987     11.546
       181       38.504      3.57392   0.0000000  +0.0000000  26.0362     10.626
       182      25.5683      3.55936   0.0000000  +0.0000000  26.4807      5.772
       183      37.1336      3.57028   0.0000000  +0.0000000  26.0756     17.332
       184      32.2077      3.57755   0.0000000  +0.0000000  26.2301     10.006
       185      95.2294      3.57028   0.0000000  +0.0000000  25.0531      2.611
       186      44.7822      3.57392   0.0000000  +0.0000000  25.8722     19.599
       187      153.602        3.563   0.0000000  +0.0000000  24.5340      4.616
       188      70.6936      3.56664   0.0000000  +0.0000000  25.3766      4.889
       189      31.4259        3.563   0.0000000  +0.0000000  26.2568      6.960
       190      31.1615      3.57755   0.0000000  +0.0000000  26.2660      4.128
       191      40.6637      3.57392   0.0000000  +0.0000000  25.9770      5.466
       192      33.7118      3.57755   0.0000000  +0.0000000  26.1805      7.368
       193      114.749      3.57755   0.0000000  +0.0000000  24.8506      2.338
       194      60.4554      3.55936   0.0000000  +0.0000000  25.5464      2.130
       195      67.0845      3.57392   0.0000000  +0.0000000  25.4334   -106.870
       196      30.7103      3.57028   0.0000000  +0.0000000  26.2818     14.590
       197      33.1256       3.5484   0.0000000  +0.0000000  26.1996      9.151
       198      53.6451      3.56664   0.0000000  +0.0000000  25.6762      3.134
       199      43.6442      3.57755   0.0000000  +0.0000000  25.9002      2.220
       200      235.116      3.55206   0.0000000  +0.0000000  24.0718      5.124
       201       518.96      3.57755   0.0000000  +0.0000000  23.2122      4.056
       202      38.3698      3.55936   0.0000000  +0.0000000  26.0400      8.069
       203       39.205      3.56664   0.0000000  +0.0000000  26.0166      3.780
       204      92.7372      3.57755   0.0000000  +0.0000000  25.0819      1.747
       205      54.1263      3.56664   0.0000000  +0.0000000  25.6665      8.199
       206      94.7438      3.57392   0.0000000  +0.0000000  25.0586      4.576
       207       30.889      3.56664   0.0000000  +0.0000000  26.2755      7.215
       208      30.6226      3.57755   0.0000000  +0.0000000  26.2849      2.902
       209      368.321      3.57028   0.0000000  +0.0000000  23.5844   -141.010
       210      508.136      3.55206   0.0000000  +0.0000000  23.2351   -124.726
       211      26.0027       3.5484   0.0000000  +0.0000000  26.4625      2.992
       212      29.1466      3.57028   0.0000000  +0.0000000  26.3385     10.665
       213       29.019      3.56664   0.0000000  +0.0000000  26.3433      5.616
       214      418.805      3.55936   0.0000000  +0.0000000  23.4450      0.796
       215      453.285      3.57028   0.0000000  +0.0000000  23.3591      0.938
       216      363.086      3.57755   0.0000000  +0.0000000  23.6000      0.903
       217      94.2946      3.57755   0.0000000  +0.0000000  25.0638     15.066
       218      502.757      3.57392   0.0000000  +0.0000000  23.2466      3.499
       219      265.831      3.57755   0.0000000  +0.0000000  23.9385      5.217
       220      35.2392      3.55571   0.0000000  +0.0000000  26.1324      2.844
       221      40.1739      3.57392   0.0000000  +0.0000000  25.9901      2.914
       222      35.3652      3.57392   0.0000000  +0.0000000  26.1286      5.953
       223       27.626      3.57755   0.0000000  +0.0000000  26.3967      7.478
       224      153.501      3.57755   0.0000000  +0.0000000  24.5347      2.939
       225      387.092        3.563   0.0000000  +0.0000000  23.5305      2.522
       226      29.4206      3.56664   0.0000000  +0.0000000  26.3284      1.938
       227      103.921      3.57392   0.0000000  +0.0000000  24.9582      4.498
       228       46.639      3.57755   0.0000000  +0.0000000  25.8281      6.924
       229      89.6415      3.57755   0.0000000  +0.0000000  25.1187      1.785
       230      71.4972      3.57028   0.0000000  +0.0000000  25.3643    -25.093
       231      203.341       3.5484   0.0000000  +0.0000000  24.2294      7.309
       232      60.4786      3.57755   0.0000000  +0.0000000  25.5460      4.482
       233      113.893      3.57755   0.0000000  +0.0000000  24.8588      7.354
       234      54.6101      3.57755   0.0000000  +0.0000000  25.6568      2.681
       235      65.9601      3.55936   0.0000000  +0.0000000  25.4518      3.313
       236      94.4922      3.57392   0.0000000  +0.0000000  25.0615      9.029
       237      71.6154      3.57755   0.0000000  +0.0000000  25.3625     12.774
       238       72.897      3.57392   0.0000000  +0.0000000  25.3432      2.578
       239      66.2275      3.57392   0.0000000  +0.0000000  25.4474      3.771
       240      184.722      3.57755   0.0000000  +0.0000000  24.3337      9.199
